File: all_datas/Lauriana_DC3_AMTECH_29-01.csv
Segment,Point,Elapsed Time (s),Potential (V),Current (A),Frequency (Hz),|Z| (ohms),Zre (ohms),Zim (ohms),Phase of Z (deg),ActionId
0,0,1.708328,0.000295616,5.58264e-08,10000,3302.37,3206.92,-788.205,-13.8086,21
0,1,1.730532,0.000295616,5.58264e-08,7943.28,3419.89,3347.63,-699.31,-11.7992,21
0,2,1.751923,0.000295616,4.95977e-08,6309.57,3505.9,3453.59,-603.391,-9.91036,21
0,3,1.773382,0.000295616,5.58264e-08,5011.87,3565.86,3529.23,-509.824,-8.21995,21
0,4,1.794755,0.000295616,4.3369e-08,3981.07,3608.84,3583.1,-430.193,-6.84625,21
0,5,1.815358,0.000295616,5.58264e-08,3162.28,3632.8,3614.28,-366.443,-5.7893,21
0,6,1.825703,0.000295616,4.3369e-08,2511.89,3649,3635.07,-318.475,-5.007,21
0,7,1.847018,0.000295616,5.58264e-08,1995.26,3661.1,3650.18,-282.565,-4.42651,21
0,8,1.868332,0.000295616,4.95977e-08,1584.89,3668.59,3659.46,-258.626,-4.04255,21
0,9,1.890426,0.000295616,5.58264e-08,1258.93,3677.86,3669.28,-250.995,-3.91319,21
0,10,2.029991,0.000295616,4.66784e-09,1000,3683.34,3678.9,-180.708,-2.81211,21
0,11,2.050541,0.000295616,3.4221e-09,794.328,3687.22,3681.01,-213.937,-3.32625,21
0,12,2.071964,0.000295616,4.66784e-09,630.957,3695.68,3686.85,-255.3,-3.96118,21
0,13,2.093837,0.000295616,3.4221e-09,501.187,3703.94,3690.91,-310.403,-4.80723,21
0,14,2.11548,0.000295616,8.40506e-09,398.107,3720.87,3701.04,-383.622,-5.91772,21
0,15,2.136899,0.000295616,9.30616e-10,316.228,3740.53,3710.15,-475.71,-7.30651,21
0,16,2.158553,0.000295616,-1.40183e-08,251.189,3767.79,3720.82,-593.048,-9.05599,21
0,17,2.190799,0.000295616,3.4221e-09,199.526,3828.94,3757.04,-738.548,-11.1212,21
0,18,2.212066,0.000295616,1.55349e-09,158.489,3909.92,3799.83,-921.264,-13.6283,21
0,19,2.234504,0.000295616,5.29071e-09,125.893,4027.9,3862.59,-1142.08,-16.4717,21
0,20,2.255895,0.000295616,-1.56087e-09,100,4213.55,3968.22,-1416.77,-19.6481,21
0,21,2.277263,0.000295616,1.21423e-08,79.4328,4490.38,4144.58,-1728,-22.6327,21
0,22,2.319302,0.000295616,4.04497e-09,63.0957,4846.47,4363.67,-2108.71,-25.7919,21
0,23,2.363221,0.000295616,5.29071e-09,50.1187,5338.22,4712.2,-2508.34,-28.0267,21
0,24,2.415752,0.000295616,4.66784e-09,39.8107,5947.36,5180.85,-2920.61,-29.4113,21
0,25,2.458871,0.000295616,3.07747e-10,31.6228,6675.2,5827.9,-3254.82,-29.1828,21
0,26,2.524103,0.000295616,5.29071e-09,25.1189,7431.22,6550.32,-3509.47,-28.1811,21
0,27,2.598726,0.000295616,4.66784e-09,19.9526,8194.03,7369.83,-3581.59,-25.9188,21
0,28,2.694093,0.000295616,5.29071e-09,15.8489,8873.39,8168.77,-3465.28,-22.9872,21
0,29,2.791747,0.000295616,5.29071e-09,12.5893,9442.38,8885.59,-3194.5,-19.7743,21
0,30,2.909016,0.000295616,5.29071e-09,10,9881.69,9469.79,-2823.28,-16.6012,21
0,31,3.048232,0.000295616,5.29071e-09,7.94328,10203.9,9913.78,-2415.82,-13.6951,21
0,32,3.230882,0.000295616,5.29071e-09,6.30957,10425.2,10228.6,-2015.17,-11.1453,21
0,33,3.454571,0.000295616,5.29071e-09,5.01187,10576.2,10446.1,-1654.13,-8.99806,21
0,34,3.722841,0.000295616,5.29071e-09,3.98107,10674.8,10590.1,-1341.94,-7.2218,21
0,35,4.056012,0.000295616,5.29071e-09,3.16228,10736.5,10681.9,-1081.36,-5.78053,21
0,36,4.483337,0.000295616,5.29071e-09,2.51189,10778.7,10743.9,-865.174,-4.60391,21
0,37,5.009505,0.000295616,5.29071e-09,1.99526,10804.6,10782.4,-692.374,-3.6741,21
0,38,5.651809,0.000295616,5.29071e-09,1.58489,10821.6,10807.6,-549.973,-2.91313,21
0,39,6.458225,0.000295616,5.29071e-09,1.25893,10832.7,10823.8,-438.42,-2.31951,21
0,40,7.488433,0.000295616,5.29071e-09,1,10837.5,10831.8,-348.988,-1.84536,21
0,41,8.773847,0.000295616,5.29071e-09,0.794328,10842,10838.5,-278.24,-1.47054,21
0,42,10.3831,0.000295616,5.29071e-09,0.630957,10846.7,10844.4,-222.371,-1.17472,21
0,43,12.387,0.000295616,5.29071e-09,0.501187,10845.1,10843.6,-180.522,-0.953767,21
0,44,14.9221,0.000295616,4.66784e-09,0.398107,10848.9,10848,-140.634,-0.742747,21
0,45,18.0937,0.000295616,5.29071e-09,0.316228,10850,10849.4,-112.141,-0.592195,21
0,46,22.0926,0.000295616,5.29071e-09,0.251189,10851,10850.7,-87.668,-0.462911,21
0,47,27.1183,0.000295616,5.29071e-09,0.199526,10848.6,10848.4,-69.9415,-0.369392,21
0,48,33.4567,0.000295616,5.29071e-09,0.158489,10849.7,10849.5,-55.1946,-0.291477,21
0,49,41.4307,0.000295616,5.29071e-09,0.125893,10850.3,10850.2,-45.1114,-0.238215,21
0,50,51.4527,0.000295616,5.29071e-09,0.1,10851,10850.9,-37.4917,-0.197966,21
0,51,64.0598,0.000295616,5.29071e-09,0.0794328,10850.9,10850.9,-27.1672,-0.14345,21