File: all_datas/TALL_DCS297_AMETECH_29-01.csv
Segment,Point,Elapsed Time (s),Potential (V),Current (A),Frequency (Hz),|Z| (ohms),Zre (ohms),Zim (ohms),Phase of Z (deg),ActionId
0,0,1.709578,0.000295616,4.3369e-08,10000,3302.53,3206.82,-789.319,-13.8278,21
0,1,1.730835,0.000295616,6.2055e-08,7943.28,3422.54,3350.1,-700.418,-11.809,21
0,2,1.752025,0.000295616,4.3369e-08,6309.57,3507.3,3454.89,-604.085,-9.91789,21
0,3,1.775015,0.000295616,5.58264e-08,5011.87,3569.96,3533.25,-510.624,-8.22343,21
0,4,1.795187,0.000295616,4.95977e-08,3981.07,3610.03,3584.06,-432.215,-6.8763,21
0,5,1.81661,0.000295616,4.95977e-08,3162.28,3636.38,3617.81,-367.063,-5.79341,21
0,6,1.827758,0.000295616,4.95977e-08,2511.89,3654.38,3640.66,-316.459,-4.96787,21
0,7,1.848793,0.000295616,4.3369e-08,1995.26,3667.12,3656.22,-282.519,-4.41852,21
0,8,1.871098,0.000295616,6.2055e-08,1584.89,3673.82,3664.6,-260.113,-4.06003,21
0,9,1.89207,0.000295616,4.3369e-08,1258.93,3676.7,3668.41,-246.683,-3.84707,21
0,10,2.032226,0.000295616,4.04497e-09,1000,3687.28,3682.79,-181.828,-2.82654,21
0,11,2.053694,0.000295616,4.04497e-09,794.328,3691.51,3685.4,-212.376,-3.2981,21
0,12,2.075131,0.000295616,3.07747e-10,630.957,3699.82,3690.9,-256.745,-3.97918,21
0,13,2.096377,0.000295616,6.53645e-09,501.187,3708.87,3695.9,-309.954,-4.79386,21
0,14,2.106873,0.000295616,-5.92096e-09,398.107,3723.23,3703.09,-386.678,-5.96125,21
0,15,2.129144,0.000295616,4.66784e-09,316.228,3743.27,3712.72,-477.228,-7.32456,21
0,16,2.150187,0.000295616,3.4221e-09,251.189,3777.54,3730.68,-593.152,-9.034,21
0,17,2.171676,0.000295616,6.53645e-09,199.526,3833.99,3762.54,-736.718,-11.0785,21
0,18,2.193886,0.000295616,3.07747e-10,158.489,3915.89,3806.11,-920.748,-13.5993,21
0,19,2.214582,0.000295616,1.27652e-08,125.893,4023.12,3857.79,-1141.46,-16.4827,21
0,20,2.236084,0.000295616,-5.29809e-09,100,4214.96,3968.14,-1421.17,-19.7048,21
0,21,2.257797,0.000295616,8.40506e-09,79.4328,4486.46,4139.4,-1730.25,-22.6848,21
0,22,2.300236,0.000295616,4.66784e-09,63.0957,4852.1,4367.57,-2113.58,-25.8235,21
0,23,2.344002,0.000295616,5.29071e-09,50.1187,5341.06,4713.72,-2511.53,-28.0492,21
0,24,2.386661,0.000295616,4.66784e-09,39.8107,5955.88,5187.73,-2925.73,-29.4217,21
0,25,2.440089,0.000295616,4.66784e-09,31.6228,6666.44,5810.34,-3268.24,-29.3572,21
0,26,2.504137,0.000295616,5.29071e-09,25.1189,7438.81,6557.4,-3512.33,-28.1748,21
0,27,2.578816,0.000295616,4.66784e-09,19.9526,8199.49,7375.63,-3582.14,-25.9045,21
0,28,2.664878,0.000295616,5.29071e-09,15.8489,8882.85,8177.3,-3469.41,-22.9902,21
0,29,2.762074,0.000295616,5.29071e-09,12.5893,9452.59,8895.34,-3197.56,-19.7717,21
0,30,2.892191,0.000295616,5.29071e-09,10,9893.11,9480.92,-2825.89,-16.5973,21
0,31,3.030964,0.000295616,5.29071e-09,7.94328,10212,9921.82,-2417.06,-13.6912,21
0,32,3.213555,0.000295616,5.29071e-09,6.30957,10436.3,10239.3,-2018.21,-11.1503,21
0,33,3.428895,0.000295616,5.29071e-09,5.01187,10585.9,10455.6,-1655.82,-8.99906,21
0,34,3.706755,0.000295616,5.29071e-09,3.98107,10683.2,10598.4,-1343.14,-7.22262,21
0,35,4.060259,0.000295616,4.66784e-09,3.16228,10747.4,10692.8,-1081.31,-5.7744,21
0,36,4.491456,0.000295616,5.29071e-09,2.51189,10789.1,10754.1,-867.704,-4.61295,21
0,37,5.004701,0.000295616,5.29071e-09,1.99526,10815.5,10793.2,-694.858,-3.68359,21
0,38,5.660751,0.000295616,5.29071e-09,1.58489,10832.2,10818.1,-551.93,-2.92065,21
0,39,6.464414,0.000295616,5.29071e-09,1.25893,10842,10833,-442.303,-2.33805,21
0,40,7.494352,0.000295616,5.29071e-09,1,10850.5,10844.9,-349.459,-1.84563,21
0,41,8.772981,0.000295616,5.29071e-09,0.794328,10856,10852.5,-278.852,-1.47188,21
0,42,10.3917,0.000295616,5.29071e-09,0.630957,10855.4,10853.1,-220.912,-1.16608,21
0,43,12.417,0.000295616,5.29071e-09,0.501187,10857.8,10856.4,-175.822,-0.927835,21
0,44,14.9504,0.000295616,5.29071e-09,0.398107,10860.3,10859.4,-138.659,-0.731541,21
0,45,18.1269,0.000295616,5.29071e-09,0.316228,10861.1,10860.5,-111.654,-0.589019,21
0,46,22.1225,0.000295616,5.29071e-09,0.251189,10863.7,10863.3,-87.3123,-0.460496,21
0,47,27.1526,0.000295616,5.29071e-09,0.199526,10862.1,10861.8,-71.349,-0.376358,21
0,48,33.4755,0.000295616,5.29071e-09,0.158489,10861.5,10861.4,-55.2659,-0.291535,21
0,49,41.4296,0.000295616,5.29071e-09,0.125893,10862.1,10862,-44.9865,-0.237296,21
0,50,51.4494,0.000295616,5.29071e-09,0.1,10862,10861.9,-36.2872,-0.191411,21
0,51,64.0554,0.000295616,5.29071e-09,0.0794328,10859.3,10859.3,-28.4648,-0.150186,21
0,52,79.9281,0.000295616,5.29071e-09,0.0630957,10860.8,10860.8,-22.8574,-0.120583,21
0,53,99.9018,0.000295616,5.29071e-09,0.0501187,10862,10862,-17.7464,-0.0936104,21
0,54,125.049,0.000295616,5.29071e-09,0.0398107,10859.4,10859.4,-14.3718,-0.0758281,21
0,55,156.698,0.000295616,5.29071e-09,0.0316228,10861.8,10861.8,-10.3283,-0.0544814,21