File: datas/AB044 NR37 14-02-2025 VARTA pulse discharge 120mA dts= 10s for 30min rest (loop 720)_01_PEIS_C02_.mpt.txt
freq/Hz	Re(Z)/Ohm	-Im(Z)/Ohm	|Z|/Ohm	Phase(Z)/deg	time/s	<Ewe>/V	<I>/mA	Cs/ F	Cp/ F	cycle number	I Range	|Ewe|/V	|I|/A	Ns	(Q-Qo)/mA.h	Analog IN 1/V	Analog IN 2/V	THD Ewe/%	NSD Ewe/%	NSR Ewe/%	THD I/%	NSD I/%	NSR I/%	|Ewe h2|/V	|Ewe h3|/V	|Ewe h4|/V	|Ewe h5|/V	|Ewe h6|/V	|Ewe h7|/V	|I h2|/A	|I h3|/A	|I h4|/A	|I h5|/A	|I h6|/A	|I h7|/A	Re(Y)/Ohm-1	Im(Y)/Ohm-1	|Y|/Ohm-1	Phase(Y)/deg	Re(C)/nF	Im(C)/nF	|C|/nF	Phase(C)/deg	Re(M)	Im(M)	|M|	Phase(M)/deg	Re(Permittivity)	Im(Permittivity)	|Permittivity|	Phase(Permittivity)/deg	Re(Resistivity)/Ohm.cm	Im(Resistivity)/Ohm.cm	|Resistivity|/Ohm.cm	Phase(Resistivity)/deg	Re(Conductivity)/mS/cm	Im(Conductivity)/mS/cm	|Conductivity|/mS/cm	Phase(Conductivity)/deg	Tan(Delta)	Loss Angle(Delta)/deg	dq/mA.h
1,0000186E+006	1,8998955E+000	2,7826399E-001	1,9201651E+000	-8,3324556E+000	3,062492492113961E+000	3,2459970E+000	2,8506717E-001	5,7194602E-001	1,2011353E-002	1,000000000000000E+000	37	1,2766681E-002	6,6487412E-003	0	8,920596714002183E-005	-4,6431704E-004	-4,6521865E-004	-1	-1	-1	-1	-1	-1	0	0	0	0	0	0	0	0	0	0	0	0	5,1529104E-001	7,5470962E-002	5,2078855E-001	8,3324556E+000	1,2011358E+001	8,2009598E+001	8,2884537E+001	-8,1667542E+001	0,0000000E+000	0,0000000E+000	0,0000000E+000	8,1667542E+001	0,0000000E+000	0,0000000E+000	0,0000000E+000	-8,1667542E+001	0,0000000E+000	0,0000000E+000	0,0000000E+000	-8,3324556E+000	0,0000000E+000	0,0000000E+000	0,0000000E+000	8,3324556E+000	6,8276730E+000	8,3324556E+000	8,920596714002183E-005
1,5483967E+005	2,2413685E+000	7,4518150E-001	2,3619967E+000	-1,8390274E+001	9,867477508640150E+000	3,2459776E+000	2,6083574E-001	1,3793542E+000	1,3729079E-001	1,000000000000000E+000	37	1,4889011E-002	6,3035698E-003	0	5,575616259065250E-004	-4,6431704E-004	-6,0270686E-004	-1	-1	-1	-1	-1	-1	0	0	0	0	0	0	0	0	0	0	0	0	4,0174893E-001	1,3356833E-001	4,2337063E-001	1,8390274E+001	1,3729079E+002	4,1294537E+002	4,3516968E+002	-7,1609726E+001	0,0000000E+000	0,0000000E+000	0,0000000E+000	7,1609726E+001	0,0000000E+000	0,0000000E+000	0,0000000E+000	-7,1609726E+001	0,0000000E+000	0,0000000E+000	0,0000000E+000	-1,8390274E+001	0,0000000E+000	0,0000000E+000	0,0000000E+000	1,8390274E+001	3,0078156E+000	1,8390274E+001	6,548228060761988E-005
2,3975656E+004	3,3909922E+000	2,5686750E+000	4,2540474E+000	-3,7143913E+001	1,628849829363753E+001	3,2459869E+000	2,5880393E-001	2,5842855E+000	9,4222403E-001	1,000000000000000E+000	37	1,4575329E-002	3,4262263E-003	0	1,015905144205537E-003	-3,2698250E-004	-4,6521865E-004	1,2816958E-001	6,3907459E-002	1,7735360E+000	3,1938607E-001	1,4077879E-001	5,0971694E+000	2,8533166E-006	9,8218225E-006	1,1988179E-005	4,3566356E-006	6,3748257E-006	3,9632182E-006	6,4626538E-006	3,0355409E-006	3,6744866E-006	5,5754335E-006	2,8381176E-006	2,3324772E-006	1,8737952E-001	1,4193991E-001	2,3507026E-001	3,7143913E+001	9,4222394E+002	1,2438607E+003	1,5604408E+003	-5,2856087E+001	0,0000000E+000	0,0000000E+000	0,0000000E+000	5,2856087E+001	0,0000000E+000	0,0000000E+000	0,0000000E+000	-5,2856087E+001	0,0000000E+000	0,0000000E+000	0,0000000E+000	-3,7143913E+001	0,0000000E+000	0,0000000E+000	0,0000000E+000	3,7143913E+001	1,3201329E+000	3,7143913E+001	5,188180773553898E-005
3,7111863E+003	8,5996790E+000	6,8990607E+000	1,1025041E+001	-3,8738201E+001	2,229769332577416E+001	3,2459636E+000	3,7504077E-002	6,2160916E+000	2,4340918E+000	1,000000000000000E+000	38	1,4027439E-002	1,2723254E-003	0	1,085446967438500E-003	-4,9865089E-004	-4,9959053E-004	1,6189872E-001	4,1014209E-002	1,8314919E+000	2,7365118E-001	5,7609603E-002	1,6727432E+000	6,0321154E-006	1,4522589E-005	4,4128437E-006	1,3967004E-005	3,3033577E-006	5,4400734E-006	3,8792390E-007	2,2237768E-006	5,8798128E-007	2,3699631E-006	5,8458863E-007	7,1603102E-007	7,0749253E-002	5,6758329E-002	9,0702616E-002	3,8738201E+001	2,4340920E+003	3,0340955E+003	3,8897993E+003	-5,1261799E+001	0,0000000E+000	0,0000000E+000	0,0000000E+000	5,1261799E+001	0,0000000E+000	0,0000000E+000	0,0000000E+000	-5,1261799E+001	0,0000000E+000	0,0000000E+000	0,0000000E+000	-3,8738201E+001	0,0000000E+000	0,0000000E+000	0,0000000E+000	3,8738201E+001	1,2465000E+000	3,8738201E+001	8,831718236650870E-006
5,7481604E+002	2,0079168E+001	7,1170855E+000	2,1303190E+001	-1,9516933E+001	2,828681086355937E+001	3,2459631E+000	3,5820324E-002	3,8903534E+001	4,3421431E+000	1,000000000000000E+000	38	1,3747834E-002	6,4534153E-004	0	1,145675040266140E-003	-7,7332027E-004	-7,7456731E-004	1,3689640E-001	4,0427234E-002	1,8514463E+000	3,0404860E-001	1,0750363E-001	3,3789101E+000	4,5695288E-006	1,2164075E-005	6,5663025E-006	9,8918044E-006	3,0618914E-006	4,6206405E-006	1,0719078E-006	6,1763370E-007	8,1578827E-007	9,0260596E-007	4,3432811E-007	6,0794815E-007	4,4244207E-002	1,5682412E-002	4,6941325E-002	1,9516933E+001	4,3421440E+003	1,2250327E+004	1,2997104E+004	-7,0483063E+001	0,0000000E+000	0,0000000E+000	0,0000000E+000	7,0483063E+001	0,0000000E+000	0,0000000E+000	0,0000000E+000	-7,0483063E+001	0,0000000E+000	0,0000000E+000	0,0000000E+000	-1,9516933E+001	0,0000000E+000	0,0000000E+000	0,0000000E+000	1,9516933E+001	2,8212628E+000	1,9516933E+001	7,200450550163325E-006
8,9003143E+001	2,5625210E+001	3,3621442E+000	2,5844833E+001	-7,4747705E+000	3,450701326565468E+001	3,2459102E+000	1,4537105E-002	5,3186133E+002	9,0008526E+000	1,000000000000000E+000	39	1,3733697E-002	5,3139043E-004	0	1,192295975722670E-003	-6,0165196E-004	-5,6833500E-004	1,5364963E-001	5,9614822E-002	1,8113497E+000	1,4686723E-001	8,2650287E-003	8,2707083E-001	5,4474408E-006	1,0744330E-005	3,3845208E-006	1,3664218E-005	6,8393815E-006	5,4054130E-006	1,1307401E-007	5,7023630E-007	4,6823210E-008	4,9796671E-007	1,2590431E-007	5,5300571E-008	3,8363654E-002	5,0334861E-003	3,8692452E-002	7,4747705E+000	9,0008516E+003	6,8601680E+004	6,9189633E+004	-8,2525230E+001	0,0000000E+000	0,0000000E+000	0,0000000E+000	8,2525230E+001	0,0000000E+000	0,0000000E+000	0,0000000E+000	-8,2525230E+001	0,0000000E+000	0,0000000E+000	0,0000000E+000	-7,4747705E+000	0,0000000E+000	0,0000000E+000	0,0000000E+000	7,4747705E+000	7,6216865E+000	7,4747705E+000	2,784865860646236E-006
1,3786777E+001	2,8544462E+001	2,1903694E+000	2,8628378E+001	-4,3880129E+000	4,027734473973396E+001	3,2459385E+000	1,4334581E-002	5,2703569E+003	3,0851852E+001	1,000000000000000E+000	39	1,3731882E-002	4,7965979E-004	0	1,216192063102235E-003	-6,7031919E-004	-6,0270686E-004	1,2506203E-001	5,6624491E-002	1,2995805E+000	1,5036671E-001	2,5604807E-002	6,6988975E-001	4,9411669E-006	1,0891671E-005	3,3803469E-006	1,0729417E-005	3,7948691E-006	2,6595394E-006	2,9421389E-007	5,4037406E-007	6,5059055E-008	3,6183161E-007	6,3843345E-008	3,4818878E-008	3,4827985E-002	2,6725379E-003	3,4930374E-002	4,3880129E+000	3,0851875E+004	4,0205528E+005	4,0323725E+005	-8,5611984E+001	0,0000000E+000	0,0000000E+000	0,0000000E+000	8,5611984E+001	0,0000000E+000	0,0000000E+000	0,0000000E+000	-8,5611984E+001	0,0000000E+000	0,0000000E+000	0,0000000E+000	-4,3880129E+000	0,0000000E+000	0,0000000E+000	0,0000000E+000	4,3880129E+000	1,3031803E+001	4,3880129E+000	3,512267371000993E-006
2,1345615E+000	3,0836241E+001	2,0469837E+000	3,0904108E+001	-3,7978592E+000	5,028612569512916E+001	3,2459383E+000	1,4565661E-002	3,6424789E+004	1,5980612E+002	1,000000000000000E+000	39	1,3729830E-002	4,4427201E-004	0	1,246047513063292E-003	-4,9865089E-004	-6,0270686E-004	1,1920760E-001	2,1912260E-002	6,4270324E-001	1,5748747E-001	8,3460331E-002	3,0595723E-001	1,7131814E-006	1,0644136E-005	2,3956836E-006	1,1261826E-005	1,5456857E-006	3,6579729E-006	5,2711749E-007	3,0755592E-007	8,9470653E-008	3,1872455E-007	7,0829799E-008	3,9479904E-008	3,2287098E-002	2,1432950E-003	3,2358158E-002	3,7978592E+000	1,5980611E+005	2,4073568E+006	2,4126550E+006	-8,6202141E+001	0,0000000E+000	0,0000000E+000	0,0000000E+000	8,6202141E+001	0,0000000E+000	0,0000000E+000	0,0000000E+000	-8,6202141E+001	0,0000000E+000	0,0000000E+000	0,0000000E+000	-3,7978592E+000	0,0000000E+000	0,0000000E+000	0,0000000E+000	3,7978592E+000	1,5064234E+001	3,7978592E+000	-7,692524266468027E-006
3,3019856E-001	3,3397533E+001	2,9886861E+000	3,3530994E+001	-5,1136765E+000	1,040792789167899E+002	3,2459285E+000	1,0656587E-002	1,6127413E+005	1,2812456E+003	1,000000000000000E+000	40	1,3700277E-002	4,0858545E-004	0	1,472999184883345E-003	-4,6431704E-004	-1,9024189E-004	1,2980436E-001	8,5654236E-002	2,5975657E-001	2,9366568E-001	2,2796431E-001	1,3665743E-001	5,2764890E-006	1,1464687E-005	1,3948153E-006	1,1979550E-005	2,6892515E-006	1,3473026E-006	7,8286519E-007	7,6536793E-007	2,1732917E-007	3,9286562E-007	6,1231823E-008	9,7152160E-008	2,9704453E-002	2,6581988E-003	2,9823154E-002	5,1136765E+000	1,2812460E+006	1,4317477E+007	1,4374691E+007	-8,4886322E+001	0,0000000E+000	0,0000000E+000	0,0000000E+000	8,4886322E+001	0,0000000E+000	0,0000000E+000	0,0000000E+000	-8,4886322E+001	0,0000000E+000	0,0000000E+000	0,0000000E+000	-5,1136765E+000	0,0000000E+000	0,0000000E+000	0,0000000E+000	5,1136765E+000	1,1174654E+001	5,1136765E+000	4,452344589149135E-005
5,1141009E-002	3,7450916E+001	6,0111160E+000	3,7930260E+001	-9,1185713E+000	4,316781251969223E+002	3,2458851E+000	5,2360985E-003	5,1772094E+005	1,3002724E+004	1,000000000000000E+000	40	1,3701979E-002	3,6124137E-004	0	2,196334755059914E-003	-1,2098034E-004	-5,2753672E-005	1,4090745E-001	1,0688308E-001	1,6060030E-001	7,5435835E-001	2,4096441E-001	1,8995351E-001	8,5450256E-006	1,1446782E-005	3,3822635E-006	1,2036894E-005	1,2606814E-006	8,6306494E-007	5,8296280E-007	2,5587660E-006	1,9348442E-007	5,7102028E-007	8,4136531E-008	9,0778322E-008	2,6030999E-002	4,1781445E-003	2,6364176E-002	9,1185713E+000	1,3002718E+007	8,1010560E+007	8,2047432E+007	-8,0881432E+001	0,0000000E+000	0,0000000E+000	0,0000000E+000	8,0881432E+001	0,0000000E+000	0,0000000E+000	0,0000000E+000	-8,0881432E+001	0,0000000E+000	0,0000000E+000	0,0000000E+000	-9,1185713E+000	0,0000000E+000	0,0000000E+000	0,0000000E+000	9,1185713E+000	6,2302766E+000	9,1185713E+000	2,374152383677157E-005
1,0003746E-002	4,5859280E+001	1,2298091E+001	4,7479645E+001	-1,5011811E+001	2,020066802081376E+003	3,2459166E+000	1,3871591E-003	1,2936590E+006	8,6792117E+004	1,000000000000000E+000	40	1,3708360E-002	2,8872077E-004	0	4,275237679904676E-003	-6,7031919E-004	-3,6210232E-004	1,3530755E-001	5,3249910E-002	1,4456925E-001	1,2574502E+000	2,9106915E-001	2,7661392E-001	4,4078079E-006	1,1467125E-005	1,9375964E-006	1,2549312E-005	3,7202465E-006	1,6498367E-006	3,0638117E-007	3,4590773E-006	1,4153146E-007	9,5831092E-007	1,3373041E-007	2,8786755E-007	2,0342873E-002	5,4553514E-003	2,1061657E-002	1,5011811E+001	8,6792104E+007	3,2364570E+008	3,3508118E+008	-7,4988190E+001	0,0000000E+000	0,0000000E+000	0,0000000E+000	7,4988190E+001	0,0000000E+000	0,0000000E+000	0,0000000E+000	-7,4988190E+001	0,0000000E+000	0,0000000E+000	0,0000000E+000	-1,5011811E+001	0,0000000E+000	0,0000000E+000	0,0000000E+000	1,5011811E+001	3,7289755E+000	1,5011811E+001	7,554964448428948E-004