File: datas/AB044 NR37 14-02-2025 VARTA pulse discharge 120mA dts= 10s for 30min rest (loop 720)_01_PEIS_C02_.mpt_nodiff.txt
freq_Hz	Zprime_Ohm	Zdoubleprime_Ohm
1000018.6	1.64502	-0.180457
792013.06	1.66463	-0.198338
627291.81	1.6898	-0.231898
496826.75	1.70401	-0.2614
393492.06	1.72528	-0.304809
311655.66	1.74732	-0.355757
246836.03	1.77632	-0.421009
195498.08	1.80569	-0.499687
154839.67	1.84755	-0.594053
122633.98	1.89683	-0.705107
97127.375	1.95432	-0.840653
76928.07	2.02842	-0.999376
60922.652	2.12082	-1.18825
48257.5	2.23169	-1.41223
38218.156	2.37389	-1.67606
30266.479	2.55491	-1.98078
23975.656	2.78248	-2.33516
18983.818	3.08059	-2.74136
15040.457	3.42861	-3.18586
11913.598	3.86355	-3.67525
9437.43	4.38191	-4.21007
7470.62	5.01093	-4.77795
5916.99	5.75909	-5.36994
4686.5	6.63855	-5.96251
3711.19	7.65935	-6.53821
2940.938	8.83873	-7.05858
2329.25	10.152	-7.48961
1844.41	11.5901	-7.78096
1460.47	13.089	-7.8939
1156.85	14.6136	-7.81301
916.466	16.0761	-7.53921
725.694	17.4394	-7.11103
574.816	18.6263	-6.55955
455.146	19.6698	-5.95589
360.577	20.5277	-5.31809
285.64	21.2445	-4.70764
226.231	21.821	-4.13715
179.14	22.2948	-3.63654
141.861	22.7373	-3.20524
112.337	23.0859	-2.83183
89.0031	23.3803	-2.50065
70.4735	23.661	-2.23931
55.8399	23.9136	-2.00134
44.2217	24.1597	-1.79135
35.0112	24.391	-1.57476
27.7367	24.5967	-1.40341
21.9607	24.7747	-1.21469
17.3998	24.9459	-1.04051
13.7868	25.076	-0.859424
10.9113	25.1797	-0.6995
8.64215	25.2692	-0.559306
6.84706	25.3355	-0.424808
5.4197	25.389	-0.301534
4.29258	25.4189	-0.20893
3.40044	25.4464	-0.106521
2.69303	25.4555	-0.0465641
2.13456	25.484	0.00934457
1.68919	25.4805	0.0611897
1.33844	25.525	0.0900083
1.06011	25.5146	0.132272
0.839509	25.5092	0.160986
0.665177	25.4499	0.202158
0.526449	25.3837	0.235225
0.41729	25.2806	0.279382
0.330199	25.2035	0.311403
0.261682	25.0514	0.314725
0.207275	24.9112	0.354446
0.164221	24.8234	0.361394
0.130066	24.7195	0.338843
0.102972	24.6392	0.325587
0.0815555	24.64	0.316566
0.0645819	24.679	0.261863
0.051141	24.6816	0.174125
0.0405099	24.6901	0.148062
0.03210552	24.7436	0.135082
0.0254206	25.0812	0.0227544
0.0201248	25.8361	-0.115564
0.0159372	25.9631	-0.173014
0.0126324	25.7059	-0.0946766
0.0100037	25.5716	-0.0562754